#Wavenumber	Intensity
650.4205	0.070180
652.2841	0.069948
654.1478	0.070097
656.0115	0.069709
657.8751	0.069930
659.7388	0.069712
661.6025	0.068922
663.4661	0.068854
665.3298	0.068780
667.1935	0.068048
669.0571	0.069406
670.9208	0.068816
672.7845	0.068197
674.6481	0.067809
676.5118	0.066821
678.3755	0.066500
680.2392	0.066878
682.1028	0.066389
683.9665	0.066410
685.8302	0.066155
687.6938	0.065507
689.5575	0.065182
691.4212	0.065138
693.2848	0.064757
695.1485	0.064797
697.0122	0.064613
698.8758	0.063987
700.7395	0.063219
702.6032	0.062700
704.4669	0.062085
706.3305	0.061487
708.1942	0.060930
710.0579	0.060572
711.9215	0.060361
713.7852	0.059983
715.6489	0.059388
717.5125	0.059020
719.3762	0.058788
721.2399	0.058579
723.1035	0.058263
724.9672	0.057886
726.8309	0.057201
728.6945	0.056573
730.5582	0.056333
732.4219	0.056075
734.2856	0.055603
736.1492	0.055209
738.0129	0.054828
739.8766	0.054542
741.7402	0.054364
743.6039	0.054002
745.4676	0.053511
747.3312	0.053177
749.1949	0.052527
751.0586	0.051807
752.9222	0.051285
754.7859	0.050882
756.6496	0.050498
758.5132	0.050292
760.3769	0.049947
762.2406	0.049324
764.1043	0.048877
765.9679	0.048651
767.8316	0.048232
769.6953	0.047932
771.5589	0.047469
773.4226	0.046984
775.2863	0.046771
777.1499	0.046507
779.0136	0.045923
780.8773	0.045451
782.7409	0.045250
784.6046	0.044962
786.4683	0.044395
788.3320	0.043949
790.1956	0.043632
792.0593	0.043267
793.9230	0.042824
795.7866	0.042312
797.6503	0.041748
799.5140	0.041359
801.3776	0.041066
803.2413	0.040750
805.1050	0.040482
806.9686	0.039994
808.8323	0.039528
810.6960	0.039442
812.5596	0.039266
814.4233	0.038927
816.2870	0.038536
818.1507	0.038090
820.0143	0.037631
821.8780	0.037222
823.7417	0.036850
825.6053	0.036622
827.4690	0.036546
829.3327	0.036358
831.1963	0.035931
833.0600	0.035540
834.9237	0.035106
836.7873	0.034647
838.6510	0.034456
840.5147	0.034316
842.3784	0.034002
844.2420	0.033625
846.1057	0.033279
847.9694	0.033088
849.8330	0.032877
851.6967	0.032617
853.5604	0.032509
855.4240	0.032379
857.2877	0.032128
859.1514	0.031945
861.0150	0.031785
862.8787	0.031487
864.7424	0.031227
866.6060	0.031068
868.4697	0.030812
870.3334	0.030599
872.1971	0.030413
874.0607	0.030192
875.9244	0.030139
877.7881	0.030127
879.6517	0.029911
881.5154	0.029678
883.3791	0.029462
885.2427	0.029163
887.1064	0.028794
888.9701	0.028446
890.8337	0.028241
892.6974	0.028082
894.5611	0.027848
896.4247	0.027569
898.2884	0.027302
900.1521	0.027068
902.0158	0.026841
903.8794	0.026597
905.7431	0.026367
907.6068	0.026221
909.4704	0.026159
911.3341	0.026120
913.1978	0.026033
915.0614	0.025953
916.9251	0.025917
918.7888	0.025919
920.6524	0.025891
922.5161	0.025808
924.3798	0.025768
926.2435	0.025776
928.1071	0.025750
929.9708	0.025636
931.8345	0.025463
933.6981	0.025317
935.5618	0.025301
937.4255	0.025299
939.2891	0.025254
941.1528	0.025242
943.0165	0.025224
944.8801	0.025253
946.7438	0.025301
948.6075	0.025368
950.4711	0.025432
952.3348	0.025386
954.1985	0.025366
956.0622	0.025462
957.9258	0.025555
959.7895	0.025641
961.6532	0.025844
963.5168	0.026171
965.3805	0.026553
967.2442	0.026905
969.1078	0.027125
970.9715	0.027277
972.8352	0.027513
974.6988	0.027796
976.5625	0.028069
978.4262	0.028423
980.2899	0.028786
982.1535	0.029057
984.0172	0.029320
985.8809	0.029613
987.7445	0.029940
989.6082	0.030257
991.4719	0.030461
993.3355	0.030611
995.1992	0.030803
997.0629	0.031057
998.9265	0.031379
1000.7902	0.031719
1002.6539	0.032053
1004.5175	0.032426
1006.3812	0.032858
1008.2449	0.033310
1010.1086	0.033825
1011.9722	0.034429
1013.8359	0.035091
1015.6996	0.035821
1017.5632	0.036611
1019.4269	0.037421
1021.2906	0.038188
1023.1542	0.038872
1025.0179	0.039532
1026.8816	0.040199
1028.7452	0.040813
1030.6089	0.041417
1032.4726	0.042038
1034.3362	0.042645
1036.1999	0.043253
1038.0636	0.043848
1039.9273	0.044393
1041.7909	0.044897
1043.6546	0.045316
1045.5183	0.045525
1047.3819	0.045452
1049.2456	0.045184
1051.1093	0.044846
1052.9729	0.044435
1054.8366	0.044111
1056.7003	0.043956
1058.5639	0.043871
1060.4276	0.043941
1062.2913	0.044216
1064.1550	0.044563
1066.0186	0.044915
1067.8823	0.045307
1069.7460	0.045738
1071.6096	0.046177
1073.4733	0.046565
1075.3370	0.046833
1077.2006	0.047061
1079.0643	0.047146
1080.9280	0.046989
1082.7916	0.046704
1084.6553	0.046278
1086.5190	0.045690
1088.3826	0.045033
1090.2463	0.044318
1092.1100	0.043606
1093.9737	0.043000
1095.8373	0.042437
1097.7010	0.041851
1099.5647	0.041296
1101.4283	0.040808
1103.2920	0.040416
1105.1557	0.040058
1107.0193	0.039711
1108.8830	0.039406
1110.7467	0.039065
1112.6103	0.038701
1114.4740	0.038363
1116.3377	0.037956
1118.2014	0.037444
1120.0650	0.036922
1121.9287	0.036465
1123.7924	0.036007
1125.6560	0.035537
1127.5197	0.035075
1129.3834	0.034616
1131.2470	0.034138
1133.1107	0.033656
1134.9744	0.033179
1136.8380	0.032705
1138.7017	0.032278
1140.5654	0.031935
1142.4290	0.031615
1144.2927	0.031274
1146.1564	0.030943
1148.0201	0.030655
1149.8837	0.030391
1151.7474	0.030149
1153.6111	0.029965
1155.4747	0.029797
1157.3384	0.029626
1159.2021	0.029443
1161.0657	0.029194
1162.9294	0.028958
1164.7931	0.028803
1166.6567	0.028628
1168.5204	0.028374
1170.3841	0.028137
1172.2477	0.027920
1174.1114	0.027691
1175.9751	0.027494
1177.8388	0.027352
1179.7024	0.027262
1181.5661	0.027245
1183.4298	0.027304
1185.2934	0.027439
1187.1571	0.027607
1189.0208	0.027785
1190.8844	0.027953
1192.7481	0.028097
1194.6118	0.028237
1196.4754	0.028427
1198.3391	0.028605
1200.2028	0.028771
1202.0665	0.028937
1203.9301	0.029072
1205.7938	0.029182
1207.6575	0.029281
1209.5211	0.029347
1211.3848	0.029387
1213.2485	0.029423
1215.1121	0.029518
1216.9758	0.029640
1218.8395	0.029727
1220.7031	0.029767
1222.5668	0.029818
1224.4305	0.029937
1226.2941	0.030048
1228.1578	0.030077
1230.0215	0.030139
1231.8852	0.030225
1233.7488	0.030291
1235.6125	0.030291
1237.4762	0.030284
1239.3398	0.030327
1241.2035	0.030345
1243.0672	0.030312
1244.9308	0.030249
1246.7945	0.030116
1248.6582	0.029971
1250.5218	0.029867
1252.3855	0.029724
1254.2492	0.029525
1256.1129	0.029332
1257.9765	0.029194
1259.8402	0.029067
1261.7039	0.028931
1263.5675	0.028829
1265.4312	0.028767
1267.2949	0.028676
1269.1585	0.028551
1271.0222	0.028533
1272.8859	0.028480
1274.7495	0.028416
1276.6132	0.028441
1278.4769	0.028477
1280.3405	0.028455
1282.2042	0.028420
1284.0679	0.028456
1285.9316	0.028540
1287.7952	0.028623
1289.6589	0.028689
1291.5226	0.028759
1293.3862	0.028879
1295.2499	0.029006
1297.1136	0.029169
1298.9772	0.029377
1300.8409	0.029550
1302.7046	0.029715
1304.5682	0.029937
1306.4319	0.030145
1308.2956	0.030328
1310.1592	0.030502
1312.0229	0.030693
1313.8866	0.030883
1315.7503	0.031020
1317.6139	0.031118
1319.4776	0.031171
1321.3413	0.031170
1323.2049	0.031120
1325.0686	0.031096
1326.9323	0.031138
1328.7959	0.031159
1330.6596	0.031166
1332.5233	0.031206
1334.3869	0.031246
1336.2506	0.031328
1338.1143	0.031680
1339.9780	0.031968
1341.8416	0.031906
1343.7053	0.031799
1345.5690	0.031909
1347.4326	0.032012
1349.2963	0.031996
1351.1600	0.031914
1353.0236	0.031884
1354.8873	0.031814
1356.7510	0.031644
1358.6146	0.031496
1360.4783	0.031676
1362.3420	0.032123
1364.2056	0.032234
1366.0693	0.032165
1367.9330	0.032393
1369.7967	0.032623
1371.6603	0.032833
1373.5240	0.033401
1375.3877	0.033937
1377.2513	0.034052
1379.1150	0.034273
1380.9787	0.034623
1382.8423	0.034808
1384.7060	0.035220
1386.5697	0.036014
1388.4333	0.036622
1390.2970	0.036613
1392.1607	0.036854
1394.0244	0.037679
1395.8880	0.038424
1397.7517	0.038774
1399.6154	0.039117
1401.4790	0.039182
1403.3427	0.039326
1405.2064	0.039806
1407.0700	0.039773
1408.9337	0.039590
1410.7974	0.039415
1412.6610	0.039021
1414.5247	0.038394
1416.3884	0.038095
1418.2520	0.038255
1420.1157	0.037858
1421.9794	0.036783
1423.8431	0.036108
1425.7067	0.035654
1427.5704	0.035134
1429.4341	0.035032
1431.2977	0.034810
1433.1614	0.034411
1435.0251	0.034872
1436.8887	0.035884
1438.7524	0.035783
1440.6161	0.035332
1442.4797	0.035394
1444.3434	0.035453
1446.2071	0.035768
1448.0707	0.036204
1449.9344	0.036173
1451.7981	0.035622
1453.6618	0.035398
1455.5254	0.035998
1457.3891	0.037150
1459.2528	0.036106
1461.1164	0.034685
1462.9801	0.034289
1464.8438	0.034484
1466.7074	0.033951
1468.5711	0.032938
1470.4348	0.032608
1472.2984	0.032955
1474.1621	0.032760
1476.0258	0.031925
1477.8895	0.031328
1479.7531	0.030916
1481.6168	0.030721
1483.4805	0.030483
1485.3441	0.030387
1487.2078	0.031005
1489.0715	0.032010
1490.9351	0.032203
1492.7988	0.031808
1494.6625	0.032116
1496.5261	0.033574
1498.3898	0.034494
1500.2535	0.034402
1502.1171	0.034167
1503.9808	0.034646
1505.8445	0.037231
1507.7082	0.040185
1509.5718	0.039739
1511.4355	0.039627
1513.2992	0.040355
1515.1628	0.041344
1517.0265	0.042447
1518.8902	0.043071
1520.7538	0.043966
1522.6175	0.045358
1524.4812	0.045447
1526.3448	0.046165
1528.2085	0.046788
1530.0722	0.047006
1531.9359	0.047912
1533.7995	0.049215
1535.6632	0.049218
1537.5269	0.049099
1539.3905	0.051414
1541.2542	0.053654
1543.1179	0.053531
1544.9815	0.053347
1546.8452	0.053037
1548.7089	0.052879
1550.5725	0.052999
1552.4362	0.052535
1554.2999	0.051869
1556.1635	0.051607
1558.0272	0.052506
1559.8909	0.053568
1561.7546	0.051439
1563.6182	0.050047
1565.4819	0.049554
1567.3456	0.049207
1569.2092	0.049169
1571.0729	0.048686
1572.9366	0.047552
1574.8002	0.047581
1576.6639	0.048547
1578.5276	0.048131
1580.3912	0.047559
1582.2549	0.047829
1584.1186	0.048166
1585.9822	0.048498
1587.8459	0.048919
1589.7096	0.049497
1591.5733	0.050228
1593.4369	0.051055
1595.3006	0.051917
1597.1643	0.052819
1599.0279	0.053691
1600.8916	0.054720
1602.7553	0.055932
1604.6189	0.057168
1606.4826	0.058596
1608.3463	0.060323
1610.2099	0.061956
1612.0736	0.063172
1613.9373	0.064461
1615.8010	0.066828
1617.6646	0.069786
1619.5283	0.070582
1621.3920	0.071494
1623.2556	0.073859
1625.1193	0.075693
1626.9830	0.076710
1628.8466	0.078006
1630.7103	0.078413
1632.5740	0.078422
1634.4376	0.079406
1636.3013	0.081170
1638.1650	0.080803
1640.0286	0.079699
1641.8923	0.079066
1643.7560	0.078420
1645.6197	0.078329
1647.4833	0.078070
1649.3470	0.076433
1651.2107	0.074913
1653.0743	0.075293
1654.9380	0.074385
1656.8017	0.071964
1658.6653	0.070039
1660.5290	0.068475
1662.3927	0.066835
1664.2563	0.064792
1666.1200	0.062588
1667.9837	0.060866
1669.8474	0.059150
1671.7110	0.056781
1673.5747	0.054466
1675.4384	0.052378
1677.3020	0.050112
1679.1657	0.047708
1681.0294	0.045738
1682.8930	0.043952
1684.7567	0.041765
1686.6204	0.039168
1688.4840	0.036918
1690.3477	0.034817
1692.2114	0.032699
1694.0750	0.030925
1695.9387	0.029192
1697.8024	0.027609
1699.6661	0.025863
1701.5297	0.024378
1703.3934	0.022781
1705.2571	0.021768
1707.1207	0.020781
1708.9844	0.019613
1710.8481	0.018673
1712.7117	0.018070
1714.5754	0.017884
1716.4391	0.017846
1718.3027	0.017180
1720.1664	0.016216
1722.0301	0.015435
1723.8937	0.015104
1725.7574	0.014636
1727.6211	0.014184
1729.4848	0.013990
1731.3484	0.014121
1733.2121	0.014136
1735.0758	0.013886
1736.9394	0.013046
1738.8031	0.012814
1740.6668	0.012953
1742.5304	0.012641
1744.3941	0.012408
1746.2578	0.012330
1748.1214	0.012334
1749.9851	0.012328
1751.8488	0.012089
1753.7125	0.011771
1755.5761	0.011538
1757.4398	0.011615
1759.3035	0.011320
1761.1671	0.011262
1763.0308	0.011298
1764.8945	0.010972
1766.7581	0.010822
1768.6218	0.011033
1770.4855	0.011133
1772.3491	0.011230
1774.2128	0.010895
1776.0765	0.010447
1777.9401	0.010394
1779.8038	0.010493
1781.6675	0.010577
1783.5312	0.010425
1785.3948	0.010392
1787.2585	0.010278
1789.1222	0.010183
1790.9858	0.010291
1792.8495	0.010352
1794.7132	0.009942
1796.5768	0.009778
1798.4405	0.009965
1800.3042	0.010035
1802.1678	0.009940
1804.0315	0.009637
1805.8952	0.009499
1807.7589	0.009635
1809.6225	0.009674
1811.4862	0.009464
1813.3499	0.009233
1815.2135	0.009081
1817.0772	0.009164
1818.9409	0.009255
1820.8045	0.009283
1822.6682	0.009309
1824.5319	0.009321
1826.3955	0.009363
1828.2592	0.009375
1830.1229	0.009575
1831.9865	0.009336
1833.8502	0.009040
1835.7139	0.009025
1837.5776	0.008999
1839.4412	0.009014
1841.3049	0.009114
1843.1686	0.009397
1845.0322	0.009545
1846.8959	0.009048
1848.7596	0.008867
1850.6232	0.009078
1852.4869	0.009146
1854.3506	0.009041
1856.2142	0.008941
1858.0779	0.009019
1859.9416	0.008986
1861.8052	0.008993
1863.6689	0.008939
1865.5326	0.008866
1867.3963	0.008996
1869.2599	0.009287
1871.1236	0.009091
1872.9873	0.008850
1874.8509	0.008910
1876.7146	0.008970
1878.5783	0.008747
1880.4419	0.008774
1882.3056	0.008776
1884.1693	0.008661
1886.0329	0.008579
1887.8966	0.008607
1889.7603	0.008591
1891.6240	0.008630
1893.4876	0.008760
1895.3513	0.008908
1897.2150	0.008868
1899.0786	0.008841
1900.9423	0.008706
1902.8060	0.008636
1904.6696	0.008569
1906.5333	0.008570
1908.3970	0.008744
1910.2606	0.008716
1912.1243	0.008564
1913.9880	0.008588
1915.8516	0.008834
1917.7153	0.008997
1919.5790	0.008882
1921.4427	0.008456
1923.3063	0.008361
1925.1700	0.008440
1927.0337	0.008425
1928.8973	0.008558
1930.7610	0.008565
1932.6247	0.008512
1934.4883	0.008383
1936.3520	0.008209
1938.2157	0.008227
1940.0793	0.008284
1941.9430	0.008330
1943.8067	0.008543
1945.6704	0.008843
1947.5340	0.008910
1949.3977	0.008298
1951.2614	0.008078
1953.1250	0.007998
1954.9887	0.007772
1956.8524	0.007883
1958.7160	0.008261
1960.5797	0.007978
1962.4434	0.007642
1964.3070	0.008024
1966.1707	0.008330
1968.0344	0.007843
1969.8980	0.007618
1971.7617	0.008094
1973.6254	0.008562
1975.4891	0.008953
1977.3527	0.010262
1979.2164	0.011273
1981.0801	0.010952
1982.9437	0.010097
1984.8074	0.009714
1986.6711	0.009194
1988.5347	0.009255
1990.3984	0.009599
1992.2621	0.009780
1994.1257	0.009930
1995.9894	0.009744
1997.8531	0.009321
1999.7167	0.008932
2001.5804	0.008790
2003.4441	0.008613
2005.3078	0.008074
2007.1714	0.008991
2009.0351	0.010268
2010.8988	0.010030
2012.7624	0.009313
2014.6261	0.009175
2016.4898	0.009089
2018.3534	0.009015
2020.2171	0.009157
2022.0808	0.009421
2023.9444	0.009346
2025.8081	0.009184
2027.6718	0.009454
2029.5355	0.010326
2031.3991	0.010795
2033.2628	0.010658
2035.1265	0.010775
2036.9901	0.011179
2038.8538	0.011185
2040.7175	0.011180
2042.5811	0.011216
2044.4448	0.011412
2046.3085	0.011779
2048.1721	0.012507
2050.0358	0.012794
2051.8995	0.012126
2053.7631	0.011532
2055.6268	0.011431
2057.4905	0.011503
2059.3542	0.011553
2061.2178	0.011708
2063.0815	0.012090
2064.9452	0.012055
2066.8088	0.011976
2068.6725	0.012163
2070.5362	0.012381
2072.3998	0.012376
2074.2635	0.012357
2076.1272	0.012136
2077.9908	0.012102
2079.8545	0.012125
2081.7182	0.012087
2083.5819	0.012206
2085.4455	0.012151
2087.3092	0.011897
2089.1729	0.011907
2091.0365	0.011776
2092.9002	0.011378
2094.7639	0.011234
2096.6275	0.011601
2098.4912	0.011921
2100.3549	0.011946
2102.2185	0.011800
2104.0822	0.011910
2105.9459	0.012101
2107.8095	0.012063
2109.6732	0.011895
2111.5369	0.011797
2113.4006	0.011565
2115.2642	0.011398
2117.1279	0.011219
2118.9916	0.011090
2120.8552	0.010882
2122.7189	0.010498
2124.5826	0.010211
2126.4462	0.010087
2128.3099	0.009528
2130.1736	0.008655
2132.0372	0.008684
2133.9009	0.009242
2135.7646	0.009399
2137.6282	0.009132
2139.4919	0.008784
2141.3556	0.009016
2143.2193	0.009205
2145.0829	0.009140
2146.9466	0.008990
2148.8103	0.008675
2150.6739	0.008363
2152.5376	0.008438
2154.4013	0.008293
2156.2649	0.008486
2158.1286	0.009557
2159.9923	0.011359
2161.8559	0.012216
2163.7196	0.012008
2165.5833	0.011617
2167.4470	0.011356
2169.3106	0.010947
2171.1743	0.010501
2173.0380	0.010403
2174.9016	0.010936
2176.7653	0.011118
2178.6290	0.010495
2180.4926	0.010353
2182.3563	0.010962
2184.2200	0.011098
2186.0836	0.011467
2187.9473	0.011699
2189.8110	0.011098
2191.6746	0.011071
2193.5383	0.011343
2195.4020	0.010855
2197.2657	0.010661
2199.1293	0.010836
2200.9930	0.010877
2202.8567	0.010672
2204.7203	0.010644
2206.5840	0.010554
2208.4477	0.010737
2210.3113	0.010915
2212.1750	0.010891
2214.0387	0.010713
2215.9023	0.010678
2217.7660	0.010682
2219.6297	0.010814
2221.4934	0.011031
2223.3570	0.010877
2225.2207	0.010688
2227.0844	0.010820
2228.9480	0.010773
2230.8117	0.010616
2232.6754	0.010472
2234.5390	0.010555
2236.4027	0.010685
2238.2664	0.011042
2240.1300	0.010847
2241.9937	0.010295
2243.8574	0.010311
2245.7210	0.010648
2247.5847	0.010929
2249.4484	0.010911
2251.3121	0.010637
2253.1757	0.010646
2255.0394	0.010832
2256.9031	0.010964
2258.7667	0.010867
2260.6304	0.010908
2262.4941	0.010716
2264.3577	0.010489
2266.2214	0.010660
2268.0851	0.010900
2269.9487	0.011011
2271.8124	0.011298
2273.6761	0.011459
2275.5397	0.011323
2277.4034	0.011209
2279.2671	0.011425
2281.1308	0.011410
2282.9944	0.011389
2284.8581	0.011549
2286.7218	0.011618
2288.5854	0.011658
2290.4491	0.011671
2292.3128	0.011462
2294.1764	0.011418
2296.0401	0.011389
2297.9038	0.011326
2299.7674	0.011409
2301.6311	0.011565
2303.4948	0.011588
2305.3585	0.011634
2307.2221	0.011786
2309.0858	0.012184
2310.9495	0.012490
2312.8131	0.012765
2314.6768	0.012823
2316.5405	0.013080
2318.4041	0.013658
2320.2678	0.014213
2322.1315	0.014775
2323.9951	0.014981
2325.8588	0.014344
2327.7225	0.013848
2329.5861	0.013874
2331.4498	0.014214
2333.3135	0.014408
2335.1772	0.014430
2337.0408	0.014358
2338.9045	0.014697
2340.7682	0.015207
2342.6318	0.015512
2344.4955	0.014876
2346.3592	0.013473
2348.2228	0.012303
2350.0865	0.012189
2351.9502	0.012869
2353.8138	0.014048
2355.6775	0.015291
2357.5412	0.016125
2359.4049	0.016104
2361.2685	0.015860
2363.1322	0.016066
2364.9959	0.015888
2366.8595	0.015249
2368.7232	0.014985
2370.5869	0.014275
2372.4505	0.013221
2374.3142	0.012286
2376.1779	0.011543
2378.0415	0.011051
2379.9052	0.010549
2381.7689	0.009869
2383.6325	0.009284
2385.4962	0.008977
2387.3599	0.008783
2389.2236	0.008650
2391.0872	0.008623
2392.9509	0.008504
2394.8146	0.008441
2396.6782	0.008523
2398.5419	0.008637
2400.4056	0.008554
2402.2692	0.008416
2404.1329	0.008312
2405.9966	0.008425
2407.8602	0.008731
2409.7239	0.008932
2411.5876	0.008784
2413.4512	0.008695
2415.3149	0.008717
2417.1786	0.008688
2419.0423	0.008642
2420.9059	0.008618
2422.7696	0.008561
2424.6333	0.008513
2426.4969	0.008582
2428.3606	0.008786
2430.2243	0.008812
2432.0879	0.008684
2433.9516	0.008728
2435.8153	0.008823
2437.6789	0.008835
2439.5426	0.008951
2441.4063	0.008961
2443.2700	0.008966
2445.1336	0.009054
2446.9973	0.009065
2448.8610	0.009044
2450.7246	0.009123
2452.5883	0.009136
2454.4520	0.009027
2456.3156	0.008971
2458.1793	0.009097
2460.0430	0.009013
2461.9066	0.008882
2463.7703	0.008883
2465.6340	0.008945
2467.4976	0.008927
2469.3613	0.008889
2471.2250	0.008805
2473.0887	0.008769
2474.9523	0.008787
2476.8160	0.008803
2478.6797	0.008656
2480.5433	0.008616
2482.4070	0.008770
2484.2707	0.008947
2486.1343	0.008907
2487.9980	0.008845
2489.8617	0.008897
2491.7253	0.008952
2493.5890	0.008928
2495.4527	0.008941
2497.3164	0.008929
2499.1800	0.008873
2501.0437	0.008812
2502.9074	0.008930
2504.7710	0.008917
2506.6347	0.008714
2508.4984	0.008757
2510.3620	0.008900
2512.2257	0.008847
2514.0894	0.008779
2515.9530	0.008897
2517.8167	0.008928
2519.6804	0.008790
2521.5440	0.008959
2523.4077	0.009052
2525.2714	0.008921
2527.1351	0.008851
2528.9987	0.008939
2530.8624	0.008975
2532.7261	0.009000
2534.5897	0.009021
2536.4534	0.009031
2538.3171	0.009000
2540.1807	0.009085
2542.0444	0.009209
2543.9081	0.009213
2545.7717	0.009092
2547.6354	0.009082
2549.4991	0.009059
2551.3627	0.009078
2553.2264	0.009130
2555.0901	0.009197
2556.9538	0.009243
2558.8174	0.009199
2560.6811	0.009117
2562.5448	0.009126
2564.4084	0.009180
2566.2721	0.009325
2568.1358	0.009388
2569.9994	0.009288
2571.8631	0.009292
2573.7268	0.009427
2575.5904	0.009456
2577.4541	0.009476
2579.3178	0.009492
2581.1815	0.009512
2583.0451	0.009432
2584.9088	0.009500
2586.7725	0.009651
2588.6361	0.009732
2590.4998	0.009668
2592.3635	0.009617
2594.2271	0.009676
2596.0908	0.009698
2597.9545	0.009713
2599.8181	0.009881
2601.6818	0.010004
2603.5455	0.010027
2605.4091	0.010025
2607.2728	0.010084
2609.1365	0.010076
2611.0002	0.010029
2612.8638	0.010102
2614.7275	0.010245
2616.5912	0.010231
2618.4548	0.010250
2620.3185	0.010248
2622.1822	0.010174
2624.0458	0.010199
2625.9095	0.010348
