Wavenumber,Intensity
650.4205,0.231294
652.2841,0.229833
654.1478,0.227636
656.0115,0.226338
657.8751,0.225377
659.7388,0.223989
661.6025,0.222058
663.4661,0.219843
665.3298,0.216442
667.1935,0.216436
669.0571,0.220770
670.9208,0.217366
672.7845,0.213632
674.6481,0.211757
676.5118,0.210182
678.3755,0.209719
680.2392,0.208501
682.1028,0.206497
683.9665,0.204674
685.8302,0.203382
687.6938,0.202772
689.5575,0.202024
691.4212,0.200435
693.2848,0.198993
695.1485,0.197143
697.0122,0.195713
698.8758,0.194896
700.7395,0.194093
702.6032,0.192556
704.4669,0.190868
706.3305,0.189974
708.1942,0.189251
710.0579,0.187371
711.9215,0.185750
713.7852,0.184454
715.6489,0.183037
717.5125,0.181643
719.3762,0.180813
721.2399,0.179633
723.1035,0.177839
724.9672,0.176152
726.8309,0.175021
728.6945,0.173912
730.5582,0.172870
732.4219,0.171430
734.2856,0.169841
736.1492,0.168456
738.0129,0.167375
739.8766,0.166033
741.7402,0.164467
743.6039,0.163124
745.4676,0.161988
747.3312,0.160559
749.1949,0.158910
751.0586,0.157284
752.9222,0.156287
754.7859,0.155215
756.6496,0.153648
758.5132,0.152067
760.3769,0.150534
762.2406,0.148977
764.1043,0.147943
765.9679,0.146680
767.8316,0.145077
769.6953,0.143578
771.5589,0.142148
773.4226,0.140617
775.2863,0.139152
777.1499,0.137692
779.0136,0.136346
780.8773,0.134797
782.7409,0.133310
784.6046,0.131900
786.4683,0.130498
788.3320,0.128941
790.1956,0.127361
792.0593,0.125903
793.9230,0.124518
795.7866,0.123023
797.6503,0.121724
799.5140,0.120245
801.3776,0.118535
803.2413,0.117088
805.1050,0.115694
806.9686,0.114266
808.8323,0.112910
810.6960,0.111434
812.5596,0.110088
814.4233,0.108878
816.2870,0.107521
818.1507,0.106142
820.0143,0.104723
821.8780,0.103022
823.7417,0.101616
825.6053,0.100367
827.4690,0.099088
829.3327,0.097761
831.1963,0.096511
833.0600,0.095405
834.9237,0.094288
836.7873,0.092928
838.6510,0.091658
840.5147,0.090356
842.3784,0.089003
844.2420,0.087800
846.1057,0.086597
847.9694,0.085422
849.8330,0.084385
851.6967,0.083212
853.5604,0.082051
855.4240,0.080974
857.2877,0.079900
859.1514,0.078758
861.0150,0.077609
862.8787,0.076561
864.7424,0.075552
866.6060,0.074476
868.4697,0.073474
870.3334,0.072593
872.1971,0.071699
874.0607,0.070726
875.9244,0.069824
877.7881,0.068950
879.6517,0.068094
881.5154,0.067297
883.3791,0.066524
885.2427,0.065715
887.1064,0.064895
888.9701,0.064121
890.8337,0.063408
892.6974,0.062709
894.5611,0.061967
896.4247,0.061276
898.2884,0.060683
900.1521,0.059960
902.0158,0.059294
903.8794,0.058710
905.7431,0.058103
907.6068,0.057487
909.4704,0.056977
911.3341,0.056532
913.1978,0.056043
915.0614,0.055553
916.9251,0.055065
918.7888,0.054571
920.6524,0.054139
922.5161,0.053631
924.3798,0.053146
926.2435,0.052764
928.1071,0.052355
929.9708,0.051946
931.8345,0.051581
933.6981,0.051177
935.5618,0.050755
937.4255,0.050349
939.2891,0.049960
941.1528,0.049589
943.0165,0.049228
944.8801,0.048851
946.7438,0.048469
948.6075,0.048147
950.4711,0.047849
952.3348,0.047522
954.1985,0.047231
956.0622,0.046910
957.9258,0.046584
959.7895,0.046303
961.6532,0.046113
963.5168,0.045897
965.3805,0.045605
967.2442,0.045352
969.1078,0.045144
970.9715,0.044953
972.8352,0.044806
974.6988,0.044696
976.5625,0.044524
978.4262,0.044378
980.2899,0.044304
982.1535,0.044244
984.0172,0.044195
985.8809,0.044120
987.7445,0.044037
989.6082,0.043950
991.4719,0.043852
993.3355,0.043735
995.1992,0.043661
997.0629,0.043588
998.9265,0.043496
1000.7902,0.043358
1002.6539,0.043200
1004.5175,0.043058
1006.3812,0.042960
1008.2449,0.042909
1010.1086,0.042908
1011.9722,0.042912
1013.8359,0.042945
1015.6996,0.042968
1017.5632,0.042963
1019.4269,0.042971
1021.2906,0.043095
1023.1542,0.043210
1025.0179,0.043300
1026.8816,0.043340
1028.7452,0.043388
1030.6089,0.043471
1032.4726,0.043542
1034.3362,0.043616
1036.1999,0.043715
1038.0636,0.043810
1039.9273,0.043859
1041.7909,0.043928
1043.6546,0.043987
1045.5183,0.043974
1047.3819,0.043955
1049.2456,0.043952
1051.1093,0.043914
1052.9729,0.043859
1054.8366,0.043802
1056.7003,0.043779
1058.5639,0.043846
1060.4276,0.043964
1062.2913,0.044069
1064.1550,0.044116
1066.0186,0.044197
1067.8823,0.044325
1069.7460,0.044434
1071.6096,0.044550
1073.4733,0.044764
1075.3370,0.044938
1077.2006,0.045061
1079.0643,0.045162
1080.9280,0.045263
1082.7916,0.045230
1084.6553,0.045129
1086.5190,0.045017
1088.3826,0.044858
1090.2463,0.044671
1092.1100,0.044493
1093.9737,0.044308
1095.8373,0.044097
1097.7010,0.043983
1099.5647,0.043899
1101.4283,0.043697
1103.2920,0.043501
1105.1557,0.043347
1107.0193,0.043160
1108.8830,0.042963
1110.7467,0.042871
1112.6103,0.042783
1114.4740,0.042611
1116.3377,0.042410
1118.2014,0.042205
1120.0650,0.042050
1121.9287,0.041929
1123.7924,0.041746
1125.6560,0.041567
1127.5197,0.041420
1129.3834,0.041225
1131.2470,0.041029
1133.1107,0.040891
1134.9744,0.040741
1136.8380,0.040622
1138.7017,0.040551
1140.5654,0.040523
1142.4290,0.040458
1144.2927,0.040369
1146.1564,0.040240
1148.0201,0.040026
1149.8837,0.039805
1151.7474,0.039675
1153.6111,0.039565
1155.4747,0.039473
1157.3384,0.039385
1159.2021,0.039293
1161.0657,0.039212
1162.9294,0.039122
1164.7931,0.039030
1166.6567,0.038902
1168.5204,0.038791
1170.3841,0.038665
1172.2477,0.038544
1174.1114,0.038414
1175.9751,0.038291
1177.8388,0.038202
1179.7024,0.038103
1181.5661,0.038022
1183.4298,0.037945
1185.2934,0.037890
1187.1571,0.037893
1189.0208,0.037883
1190.8844,0.037839
1192.7481,0.037819
1194.6118,0.037861
1196.4754,0.037884
1198.3391,0.037893
1200.2028,0.037890
1202.0665,0.037899
1203.9301,0.037929
1205.7938,0.037898
1207.6575,0.037876
1209.5211,0.037873
1211.3848,0.037875
1213.2485,0.037811
1215.1121,0.037757
1216.9758,0.037776
1218.8395,0.037811
1220.7031,0.037796
1222.5668,0.037786
1224.4305,0.037756
1226.2941,0.037754
1228.1578,0.037779
1230.0215,0.037796
1231.8852,0.037743
1233.7488,0.037739
1235.6125,0.037736
1237.4762,0.037716
1239.3398,0.037691
1241.2035,0.037682
1243.0672,0.037686
1244.9308,0.037661
1246.7945,0.037603
1248.6582,0.037539
1250.5218,0.037438
1252.3855,0.037408
1254.2492,0.037333
1256.1129,0.037239
1257.9765,0.037230
1259.8402,0.037228
1261.7039,0.037130
1263.5675,0.037035
1265.4312,0.036997
1267.2949,0.036977
1269.1585,0.036977
1271.0222,0.036981
1272.8859,0.036957
1274.7495,0.036921
1276.6132,0.036878
1278.4769,0.036865
1280.3405,0.036868
1282.2042,0.036866
1284.0679,0.036834
1285.9316,0.036828
1287.7952,0.036852
1289.6589,0.036873
1291.5226,0.036855
1293.3862,0.036879
1295.2499,0.036910
1297.1136,0.036966
1298.9772,0.037028
1300.8409,0.037134
1302.7046,0.037220
1304.5682,0.037228
1306.4319,0.037242
1308.2956,0.037286
1310.1592,0.037363
1312.0229,0.037510
1313.8866,0.037586
1315.7503,0.037567
1317.6139,0.037665
1319.4776,0.037759
1321.3413,0.037620
1323.2049,0.037471
1325.0686,0.037473
1326.9323,0.037475
1328.7959,0.037461
1330.6596,0.037466
1332.5233,0.037478
1334.3869,0.037414
1336.2506,0.037462
1338.1143,0.037834
1339.9780,0.038145
1341.8416,0.037897
1343.7053,0.037659
1345.5690,0.037715
1347.4326,0.037807
1349.2963,0.037915
1351.1600,0.037914
1353.0236,0.037900
1354.8873,0.037851
1356.7510,0.037664
1358.6146,0.037512
1360.4783,0.037753
1362.3420,0.038288
1364.2056,0.038220
1366.0693,0.037762
1367.9330,0.037751
1369.7967,0.037668
1371.6603,0.037615
1373.5240,0.038104
1375.3877,0.038358
1377.2513,0.037938
1379.1150,0.037839
1380.9787,0.037630
1382.8423,0.037454
1384.7060,0.037461
1386.5697,0.038035
1388.4333,0.038180
1390.2970,0.037520
1392.1607,0.037292
1394.0244,0.037924
1395.8880,0.038510
1397.7517,0.038425
1399.6154,0.038616
1401.4790,0.038144
1403.3427,0.038212
1405.2064,0.038771
1407.0700,0.038659
1408.9337,0.038491
1410.7974,0.038563
1412.6610,0.038310
1414.5247,0.037976
1416.3884,0.038075
1418.2520,0.039045
1420.1157,0.039308
1421.9794,0.038108
1423.8431,0.037901
1425.7067,0.037561
1427.5704,0.037190
1429.4341,0.037378
1431.2977,0.037021
1433.1614,0.036523
1435.0251,0.036914
1436.8887,0.038194
1438.7524,0.037410
1440.6161,0.036590
1442.4797,0.036458
1444.3434,0.036337
1446.2071,0.036552
1448.0707,0.036910
1449.9344,0.036387
1451.7981,0.035688
1453.6618,0.035550
1455.5254,0.036675
1457.3891,0.038954
1459.2528,0.037511
1461.1164,0.036015
1462.9801,0.035756
1464.8438,0.036567
1466.7074,0.035879
1468.5711,0.035002
1470.4348,0.035071
1472.2984,0.036647
1474.1621,0.036759
1476.0258,0.036088
1477.8895,0.035477
1479.7531,0.035063
1481.6168,0.035076
1483.4805,0.034641
1485.3441,0.034491
1487.2078,0.035175
1489.0715,0.036089
1490.9351,0.036170
1492.7988,0.034978
1494.6625,0.035017
1496.5261,0.036383
1498.3898,0.036649
1500.2535,0.035812
1502.1171,0.034980
1503.9808,0.035062
1505.8445,0.038133
1507.7082,0.040388
1509.5718,0.038630
1511.4355,0.037857
1513.2992,0.037777
1515.1628,0.038046
1517.0265,0.039064
1518.8902,0.039131
1520.7538,0.040635
1522.6175,0.041634
1524.4812,0.041267
1526.3448,0.041858
1528.2085,0.041870
1530.0722,0.041706
1531.9359,0.042328
1533.7995,0.043521
1535.6632,0.042576
1537.5269,0.042745
1539.3905,0.046516
1541.2542,0.048996
1543.1179,0.048430
1544.9815,0.048261
1546.8452,0.047793
1548.7089,0.047994
1550.5725,0.048681
1552.4362,0.048356
1554.2999,0.048769
1556.1635,0.049464
1558.0272,0.054280
1559.8909,0.057809
1561.7546,0.054325
1563.6182,0.053206
1565.4819,0.053866
1567.3456,0.054681
1569.2092,0.056938
1571.0729,0.057576
1572.9366,0.057236
1574.8002,0.059628
1576.6639,0.063639
1578.5276,0.063935
1580.3912,0.064427
1582.2549,0.066185
1584.1186,0.068331
1585.9822,0.070588
1587.8459,0.072968
1589.7096,0.075643
1591.5733,0.078566
1593.4369,0.081803
1595.3006,0.085424
1597.1643,0.088983
1599.0279,0.092741
1600.8916,0.097043
1602.7553,0.101650
1604.6189,0.106291
1606.4826,0.111230
1608.3463,0.116750
1610.2099,0.121584
1612.0736,0.125453
1613.9373,0.129781
1615.8010,0.138067
1617.6646,0.145652
1619.5283,0.146955
1621.3920,0.149909
1623.2556,0.156361
1625.1193,0.159839
1626.9830,0.161911
1628.8466,0.163654
1630.7103,0.162922
1632.5740,0.162339
1634.4376,0.166154
1636.3013,0.170723
1638.1650,0.167317
1640.0286,0.163029
1641.8923,0.159519
1643.7560,0.156895
1645.6197,0.156617
1647.4833,0.154761
1649.3470,0.148677
1651.2107,0.146309
1653.0743,0.150259
1654.9380,0.144148
1656.8017,0.136271
1658.6653,0.130791
1660.5290,0.126773
1662.3927,0.123388
1664.2563,0.118178
1666.1200,0.112842
1667.9837,0.109441
1669.8474,0.106116
1671.7110,0.101115
1673.5747,0.096987
1675.4384,0.093586
1677.3020,0.088026
1679.1657,0.083407
1681.0294,0.079533
1682.8930,0.077820
1684.7567,0.075621
1686.6204,0.070202
1688.4840,0.066087
1690.3477,0.062171
1692.2114,0.058474
1694.0750,0.055847
1695.9387,0.054134
1697.8024,0.051331
1699.6661,0.050457
1701.5297,0.047450
1703.3934,0.044323
1705.2571,0.042565
1707.1207,0.040247
1708.9844,0.037864
1710.8481,0.035662
1712.7117,0.034041
1714.5754,0.033144
1716.4391,0.032752
1718.3027,0.031969
1720.1664,0.029675
1722.0301,0.028037
1723.8937,0.026755
1725.7574,0.025548
1727.6211,0.024399
1729.4848,0.023629
1731.3484,0.022995
1733.2121,0.023132
1735.0758,0.022373
1736.9394,0.020738
1738.8031,0.020250
1740.6668,0.019628
1742.5304,0.018928
1744.3941,0.018133
1746.2578,0.017643
1748.1214,0.017463
1749.9851,0.017298
1751.8488,0.016625
1753.7125,0.015397
1755.5761,0.014875
1757.4398,0.014662
1759.3035,0.014217
1761.1671,0.014009
1763.0308,0.013456
1764.8945,0.012761
1766.7581,0.012524
1768.6218,0.012477
1770.4855,0.012433
1772.3491,0.012459
1774.2128,0.011754
1776.0765,0.011323
1777.9401,0.010956
1779.8038,0.010949
1781.6675,0.010661
1783.5312,0.010410
1785.3948,0.010032
1787.2585,0.009782
1789.1222,0.009582
1790.9858,0.009676
1792.8495,0.009675
1794.7132,0.009407
1796.5768,0.009079
1798.4405,0.008879
1800.3042,0.008919
1802.1678,0.008821
1804.0315,0.008515
1805.8952,0.008221
1807.7589,0.008037
1809.6225,0.008013
1811.4862,0.007928
1813.3499,0.007629
1815.2135,0.007349
1817.0772,0.007273
1818.9409,0.007360
1820.8045,0.007492
1822.6682,0.007438
1824.5319,0.007585
1826.3955,0.007587
1828.2592,0.007500
1830.1229,0.007395
1831.9865,0.007271
1833.8502,0.007116
1835.7139,0.007015
1837.5776,0.007135
1839.4412,0.007045
1841.3049,0.007002
1843.1686,0.007321
1845.0322,0.007612
1846.8959,0.007532
1848.7596,0.007125
1850.6232,0.006845
1852.4869,0.007005
1854.3506,0.007024
1856.2142,0.006974
1858.0779,0.006938
1859.9416,0.007027
1861.8052,0.006973
1863.6689,0.006997
1865.5326,0.006998
1867.3963,0.007222
1869.2599,0.007441
1871.1236,0.007306
1872.9873,0.007220
1874.8509,0.007264
1876.7146,0.007177
1878.5783,0.007172
1880.4419,0.007077
1882.3056,0.007069
1884.1693,0.007346
1886.0329,0.007372
1887.8966,0.007293
1889.7603,0.007507
1891.6240,0.007534
1893.4876,0.007535
1895.3513,0.007495
1897.2150,0.007458
1899.0786,0.007454
1900.9423,0.007525
1902.8060,0.007487
1904.6696,0.007593
1906.5333,0.007674
1908.3970,0.007661
1910.2606,0.007508
1912.1243,0.007563
1913.9880,0.007619
1915.8516,0.007762
1917.7153,0.008116
1919.5790,0.008315
1921.4427,0.008249
1923.3063,0.008137
1925.1700,0.008145
1927.0337,0.008088
1928.8973,0.007974
1930.7610,0.007920
1932.6247,0.007780
1934.4883,0.007903
1936.3520,0.008307
1938.2157,0.008607
1940.0793,0.008449
1941.9430,0.008635
1943.8067,0.008861
1945.6704,0.008724
1947.5340,0.008485
1949.3977,0.008573
1951.2614,0.008783
1953.1250,0.009125
1954.9887,0.008698
1956.8524,0.008247
1958.7160,0.008613
1960.5797,0.009008
1962.4434,0.009233
1964.3070,0.009889
1966.1707,0.009787
1968.0344,0.009626
1969.8980,0.009416
1971.7617,0.009512
1973.6254,0.009952
1975.4891,0.010574
1977.3527,0.011969
1979.2164,0.013106
1981.0801,0.012517
1982.9437,0.012049
1984.8074,0.012207
1986.6711,0.012048
1988.5347,0.011523
1990.3984,0.011817
1992.2621,0.012236
1994.1257,0.012171
1995.9894,0.011565
1997.8531,0.011172
1999.7167,0.011374
2001.5804,0.011738
2003.4441,0.011688
2005.3078,0.011938
2007.1714,0.012416
2009.0351,0.012763
2010.8988,0.012690
2012.7624,0.012593
2014.6261,0.012304
2016.4898,0.012705
2018.3534,0.013370
2020.2171,0.013369
2022.0808,0.012772
2023.9444,0.012886
2025.8081,0.013591
2027.6718,0.013808
2029.5355,0.013374
2031.3991,0.013660
2033.2628,0.014165
2035.1265,0.014532
2036.9901,0.014979
2038.8538,0.015691
2040.7175,0.015896
2042.5811,0.015406
2044.4448,0.015140
2046.3085,0.015644
2048.1721,0.016466
2050.0358,0.017196
2051.8995,0.016715
2053.7631,0.015954
2055.6268,0.016097
2057.4905,0.016405
2059.3542,0.016497
2061.2178,0.016833
2063.0815,0.017072
2064.9452,0.016895
2066.8088,0.016739
2068.6725,0.016981
2070.5362,0.016972
2072.3998,0.017235
2074.2635,0.017432
2076.1272,0.017363
2077.9908,0.017271
2079.8545,0.017165
2081.7182,0.017083
2083.5819,0.017324
2085.4455,0.017279
2087.3092,0.017134
2089.1729,0.017023
2091.0365,0.016893
2092.9002,0.016565
2094.7639,0.016618
2096.6275,0.017187
2098.4912,0.017398
2100.3549,0.017057
2102.2185,0.016892
2104.0822,0.016798
2105.9459,0.017100
2107.8095,0.017273
2109.6732,0.017159
2111.5369,0.017024
2113.4006,0.017062
2115.2642,0.016877
2117.1279,0.016473
2118.9916,0.016130
2120.8552,0.015814
2122.7189,0.015126
2124.5826,0.014802
2126.4462,0.014831
2128.3099,0.014422
2130.1736,0.013911
2132.0372,0.013530
2133.9009,0.013167
2135.7646,0.013288
2137.6282,0.013568
2139.4919,0.013795
2141.3556,0.013450
2143.2193,0.013042
2145.0829,0.013278
2146.9466,0.013527
2148.8103,0.013089
2150.6739,0.012680
2152.5376,0.012226
2154.4013,0.011762
2156.2649,0.011834
2158.1286,0.013120
2159.9923,0.014899
2161.8559,0.016052
2163.7196,0.015818
2165.5833,0.015752
2167.4470,0.015799
2169.3106,0.015168
2171.1743,0.014059
2173.0380,0.013160
2174.9016,0.012690
2176.7653,0.013223
2178.6290,0.013520
2180.4926,0.013910
2182.3563,0.014159
2184.2200,0.014130
2186.0836,0.013825
2187.9473,0.013513
2189.8110,0.013266
2191.6746,0.013614
2193.5383,0.013494
2195.4020,0.013021
2197.2657,0.012720
2199.1293,0.012921
2200.9930,0.013081
2202.8567,0.013003
2204.7203,0.012410
2206.5840,0.012219
2208.4477,0.012188
2210.3113,0.012014
2212.1750,0.011700
2214.0387,0.012275
2215.9023,0.012280
2217.7660,0.011640
2219.6297,0.011465
2221.4934,0.011882
2223.3570,0.011854
2225.2207,0.011590
2227.0844,0.011241
2228.9480,0.011036
2230.8117,0.010765
2232.6754,0.010564
2234.5390,0.010733
2236.4027,0.010954
2238.2664,0.010577
2240.1300,0.010351
2241.9937,0.010357
2243.8574,0.010444
2245.7210,0.010204
2247.5847,0.010177
2249.4484,0.009798
2251.3121,0.009320
2253.1757,0.009310
2255.0394,0.009856
2256.9031,0.009914
2258.7667,0.009454
2260.6304,0.009193
2262.4941,0.009269
2264.3577,0.008924
2266.2214,0.008769
2268.0851,0.008950
2269.9487,0.008977
2271.8124,0.008848
2273.6761,0.008929
2275.5397,0.008917
2277.4034,0.008870
2279.2671,0.008722
2281.1308,0.008743
2282.9944,0.008742
2284.8581,0.008660
2286.7218,0.008604
2288.5854,0.008483
2290.4491,0.008006
2292.3128,0.007693
2294.1764,0.007689
2296.0401,0.007862
2297.9038,0.007688
2299.7674,0.007302
2301.6311,0.007175
2303.4948,0.007198
2305.3585,0.007137
2307.2221,0.007159
2309.0858,0.007195
2310.9495,0.007305
2312.8131,0.007339
2314.6768,0.007400
2316.5405,0.007340
2318.4041,0.007511
2320.2678,0.007773
2322.1315,0.008066
2323.9951,0.008000
2325.8588,0.007253
2327.7225,0.006348
2329.5861,0.006325
2331.4498,0.006217
2333.3135,0.006222
2335.1772,0.006334
2337.0408,0.006304
2338.9045,0.006367
2340.7682,0.006531
2342.6318,0.006450
2344.4955,0.006005
2346.3592,0.005297
2348.2228,0.004764
2350.0865,0.004355
2351.9502,0.004514
2353.8138,0.005094
2355.6775,0.005564
2357.5412,0.006031
2359.4049,0.006083
2361.2685,0.005860
2363.1322,0.005951
2364.9959,0.005878
2366.8595,0.005647
2368.7232,0.005403
2370.5869,0.004986
2372.4505,0.004506
2374.3142,0.004313
2376.1779,0.003905
2378.0415,0.003349
2379.9052,0.002900
2381.7689,0.002604
2383.6325,0.002315
2385.4962,0.002134
2387.3599,0.002011
2389.2236,0.001940
2391.0872,0.001714
2392.9509,0.001496
2394.8146,0.001397
2396.6782,0.001495
2398.5419,0.001489
2400.4056,0.001443
2402.2692,0.001441
2404.1329,0.001484
2405.9966,0.001419
2407.8602,0.001496
2409.7239,0.001475
2411.5876,0.001333
2413.4512,0.001220
2415.3149,0.001206
2417.1786,0.001096
2419.0423,0.001075
2420.9059,0.001057
2422.7696,0.001101
2424.6333,0.001126
2426.4969,0.001181
2428.3606,0.001157
2430.2243,0.001189
2432.0879,0.001161
2433.9516,0.001044
2435.8153,0.000855
2437.6789,0.000957
2439.5426,0.001036
2441.4063,0.000953
2443.2700,0.000985
2445.1336,0.000993
2446.9973,0.000891
2448.8610,0.000888
2450.7246,0.000694
2452.5883,0.000482
2454.4520,0.000506
2456.3156,0.000600
2458.1793,0.000478
2460.0430,0.000401
2461.9066,0.000381
2463.7703,0.000319
2465.6340,0.000185
2467.4976,0.000161
2469.3613,0.000056
2471.2250,0.000005
2473.0887,0.000052
2474.9523,0.000009
2476.8160,-0.000072
2478.6797,-0.000019
2480.5433,-0.000065
2482.4070,-0.000224
2484.2707,-0.000453
2486.1343,-0.000452
2487.9980,-0.000431
2489.8617,-0.000538
2491.7253,-0.000625
2493.5890,-0.000576
2495.4527,-0.000604
2497.3164,-0.000621
2499.1800,-0.000564
2501.0437,-0.000511
2502.9074,-0.000662
2504.7710,-0.000776
2506.6347,-0.000701
2508.4984,-0.000721
2510.3620,-0.000826
2512.2257,-0.000784
2514.0894,-0.000806
2515.9530,-0.000730
2517.8167,-0.000771
2519.6804,-0.000741
2521.5440,-0.000779
2523.4077,-0.000916
